#gpvdm
#title Refractive index
#type xy
#x_mul 1e9
#y_mul 1e9
#x_mul 1e9
#data_mul 1.0
#x_label Wavelength
#data_label Refractive index 
#x_units nm
#data_units au
#logscale_x 0
#logscale_y 0
#section_one Materials
#section_two Refractive index
3.00000000E-007	2.28130000E+000
3.01000000E-007	2.27720000E+000
3.02000000E-007	2.27260000E+000
3.03000000E-007	2.26770000E+000
3.04000000E-007	2.26250000E+000
3.05000000E-007	2.25790000E+000
3.06000000E-007	2.25390000E+000
3.07000000E-007	2.24750000E+000
3.08000000E-007	2.24150000E+000
3.09000000E-007	2.23610000E+000
3.10000000E-007	2.23130000E+000
3.11000000E-007	2.22630000E+000
3.12000000E-007	2.21980000E+000
3.13000000E-007	2.21340000E+000
3.14000000E-007	2.20710000E+000
3.15000000E-007	2.20330000E+000
3.16000000E-007	2.19910000E+000
3.17000000E-007	2.19430000E+000
3.18000000E-007	2.18900000E+000
3.19000000E-007	2.18360000E+000
3.20000000E-007	2.17800000E+000
3.21000000E-007	2.17350000E+000
3.22000000E-007	2.16940000E+000
3.23000000E-007	2.16260000E+000
3.24000000E-007	2.15670000E+000
3.25000000E-007	2.15210000E+000
3.26000000E-007	2.14710000E+000
3.27000000E-007	2.14190000E+000
3.28000000E-007	2.13570000E+000
3.29000000E-007	2.13060000E+000
3.30000000E-007	2.12620000E+000
3.31000000E-007	2.12280000E+000
3.32000000E-007	2.11810000E+000
3.33000000E-007	2.11170000E+000
3.34000000E-007	2.10740000E+000
3.35000000E-007	2.10340000E+000
3.36000000E-007	2.09960000E+000
3.37000000E-007	2.09580000E+000
3.38000000E-007	2.09190000E+000
3.39000000E-007	2.08860000E+000
3.40000000E-007	2.08560000E+000
3.41000000E-007	2.08280000E+000
3.42000000E-007	2.08000000E+000
3.43000000E-007	2.07660000E+000
3.44000000E-007	2.07180000E+000
3.45000000E-007	2.06700000E+000
3.46000000E-007	2.06230000E+000
3.47000000E-007	2.05760000E+000
3.48000000E-007	2.05330000E+000
3.49000000E-007	2.04960000E+000
3.50000000E-007	2.04790000E+000
3.51000000E-007	2.04470000E+000
3.52000000E-007	2.03810000E+000
3.53000000E-007	2.03590000E+000
3.54000000E-007	2.03490000E+000
3.55000000E-007	2.03140000E+000
3.56000000E-007	2.02800000E+000
3.57000000E-007	2.02460000E+000
3.58000000E-007	2.02240000E+000
3.59000000E-007	2.01950000E+000
3.60000000E-007	2.01540000E+000
3.61000000E-007	2.01190000E+000
3.62000000E-007	2.00910000E+000
3.63000000E-007	2.00860000E+000
3.64000000E-007	2.00520000E+000
3.65000000E-007	1.99940000E+000
3.66000000E-007	1.99680000E+000
3.67000000E-007	1.99460000E+000
3.68000000E-007	1.99320000E+000
3.69000000E-007	1.98970000E+000
3.70000000E-007	1.98640000E+000
3.71000000E-007	1.98600000E+000
3.72000000E-007	1.98430000E+000
3.73000000E-007	1.98170000E+000
3.74000000E-007	1.98060000E+000
3.75000000E-007	1.97910000E+000
3.76000000E-007	1.97680000E+000
3.77000000E-007	1.97480000E+000
3.78000000E-007	1.97300000E+000
3.79000000E-007	1.97120000E+000
3.80000000E-007	1.96910000E+000
3.81000000E-007	1.96690000E+000
3.82000000E-007	1.96450000E+000
3.83000000E-007	1.96350000E+000
3.84000000E-007	1.96440000E+000
3.85000000E-007	1.96140000E+000
3.86000000E-007	1.95870000E+000
3.87000000E-007	1.95990000E+000
3.88000000E-007	1.95910000E+000
3.89000000E-007	1.95720000E+000
3.90000000E-007	1.95620000E+000
3.91000000E-007	1.95510000E+000
3.92000000E-007	1.95400000E+000
3.93000000E-007	1.95080000E+000
3.94000000E-007	1.94770000E+000
3.95000000E-007	1.94630000E+000
3.96000000E-007	1.94600000E+000
3.97000000E-007	1.94620000E+000
3.98000000E-007	1.94390000E+000
3.99000000E-007	1.94310000E+000
4.00000000E-007	1.94380000E+000
4.01000000E-007	1.94280000E+000
4.02000000E-007	1.94180000E+000
4.03000000E-007	1.94120000E+000
4.04000000E-007	1.94150000E+000
4.05000000E-007	1.94190000E+000
4.06000000E-007	1.93920000E+000
4.07000000E-007	1.93760000E+000
4.08000000E-007	1.93690000E+000
4.09000000E-007	1.93560000E+000
4.10000000E-007	1.93470000E+000
4.11000000E-007	1.93490000E+000
4.12000000E-007	1.93370000E+000
4.13000000E-007	1.93240000E+000
4.14000000E-007	1.93340000E+000
4.15000000E-007	1.93320000E+000
4.16000000E-007	1.93200000E+000
4.17000000E-007	1.93210000E+000
4.18000000E-007	1.93230000E+000
4.19000000E-007	1.93240000E+000
4.20000000E-007	1.93170000E+000
4.21000000E-007	1.93090000E+000
4.22000000E-007	1.93180000E+000
4.23000000E-007	1.93120000E+000
4.24000000E-007	1.92950000E+000
4.25000000E-007	1.93060000E+000
4.26000000E-007	1.93100000E+000
4.27000000E-007	1.92990000E+000
4.28000000E-007	1.93010000E+000
4.29000000E-007	1.93000000E+000
4.30000000E-007	1.92580000E+000
4.31000000E-007	1.92560000E+000
4.32000000E-007	1.92850000E+000
4.33000000E-007	1.92740000E+000
4.34000000E-007	1.92550000E+000
4.35000000E-007	1.92280000E+000
4.36000000E-007	1.92510000E+000
4.37000000E-007	1.92800000E+000
4.38000000E-007	1.92810000E+000
4.39000000E-007	1.92650000E+000
4.40000000E-007	1.92360000E+000
4.41000000E-007	1.92630000E+000
4.42000000E-007	1.92830000E+000
4.43000000E-007	1.92900000E+000
4.44000000E-007	1.92790000E+000
4.45000000E-007	1.92690000E+000
4.46000000E-007	1.92810000E+000
4.47000000E-007	1.92960000E+000
4.48000000E-007	1.93100000E+000
4.49000000E-007	1.92900000E+000
4.50000000E-007	1.92920000E+000
4.51000000E-007	1.93230000E+000
4.52000000E-007	1.93110000E+000
4.53000000E-007	1.92960000E+000
4.54000000E-007	1.92950000E+000
4.55000000E-007	1.93110000E+000
4.56000000E-007	1.93340000E+000
4.57000000E-007	1.93120000E+000
4.58000000E-007	1.92930000E+000
4.59000000E-007	1.92780000E+000
4.60000000E-007	1.92800000E+000
4.61000000E-007	1.92860000E+000
4.62000000E-007	1.92960000E+000
4.63000000E-007	1.93070000E+000
4.64000000E-007	1.93170000E+000
4.65000000E-007	1.93090000E+000
4.66000000E-007	1.92920000E+000
4.67000000E-007	1.92660000E+000
4.68000000E-007	1.92740000E+000
4.69000000E-007	1.92860000E+000
4.70000000E-007	1.92950000E+000
4.71000000E-007	1.92990000E+000
4.72000000E-007	1.92980000E+000
4.73000000E-007	1.92750000E+000
4.74000000E-007	1.92570000E+000
4.75000000E-007	1.92460000E+000
4.76000000E-007	1.92630000E+000
4.77000000E-007	1.92620000E+000
4.78000000E-007	1.92140000E+000
4.79000000E-007	1.91980000E+000
4.80000000E-007	1.91880000E+000
4.81000000E-007	1.91460000E+000
4.82000000E-007	1.91220000E+000
4.83000000E-007	1.91150000E+000
4.84000000E-007	1.91220000E+000
4.85000000E-007	1.91170000E+000
4.86000000E-007	1.90900000E+000
4.87000000E-007	1.90580000E+000
4.88000000E-007	1.90260000E+000
4.89000000E-007	1.89990000E+000
4.90000000E-007	1.89910000E+000
4.91000000E-007	1.89960000E+000
4.92000000E-007	1.89890000E+000
4.93000000E-007	1.89710000E+000
4.94000000E-007	1.89350000E+000
4.95000000E-007	1.89120000E+000
4.96000000E-007	1.88940000E+000
4.97000000E-007	1.88750000E+000
4.98000000E-007	1.88660000E+000
4.99000000E-007	1.88620000E+000
5.00000000E-007	1.88390000E+000
5.01000000E-007	1.88330000E+000
5.02000000E-007	1.88530000E+000
5.03000000E-007	1.88330000E+000
5.04000000E-007	1.88070000E+000
5.05000000E-007	1.87900000E+000
5.06000000E-007	1.87780000E+000
5.07000000E-007	1.87680000E+000
5.08000000E-007	1.87260000E+000
5.09000000E-007	1.87100000E+000
5.10000000E-007	1.87300000E+000
5.11000000E-007	1.86940000E+000
5.12000000E-007	1.86550000E+000
5.13000000E-007	1.86410000E+000
5.14000000E-007	1.86420000E+000
5.15000000E-007	1.86500000E+000
5.16000000E-007	1.86410000E+000
5.17000000E-007	1.86340000E+000
5.18000000E-007	1.86290000E+000
5.19000000E-007	1.86020000E+000
5.20000000E-007	1.85770000E+000
5.21000000E-007	1.85640000E+000
5.22000000E-007	1.85570000E+000
5.23000000E-007	1.85530000E+000
5.24000000E-007	1.85500000E+000
5.25000000E-007	1.85330000E+000
5.26000000E-007	1.85020000E+000
5.27000000E-007	1.84920000E+000
5.28000000E-007	1.84810000E+000
5.29000000E-007	1.84660000E+000
5.30000000E-007	1.84590000E+000
5.31000000E-007	1.84560000E+000
5.32000000E-007	1.84460000E+000
5.33000000E-007	1.84320000E+000
5.34000000E-007	1.84150000E+000
5.35000000E-007	1.84120000E+000
5.36000000E-007	1.84070000E+000
5.37000000E-007	1.83940000E+000
5.38000000E-007	1.83870000E+000
5.39000000E-007	1.83790000E+000
5.40000000E-007	1.83490000E+000
5.41000000E-007	1.83350000E+000
5.42000000E-007	1.83320000E+000
5.43000000E-007	1.83040000E+000
5.44000000E-007	1.82860000E+000
5.45000000E-007	1.82850000E+000
5.46000000E-007	1.82710000E+000
5.47000000E-007	1.82580000E+000
5.48000000E-007	1.82570000E+000
5.49000000E-007	1.82480000E+000
5.50000000E-007	1.82340000E+000
5.51000000E-007	1.82060000E+000
5.52000000E-007	1.81890000E+000
5.53000000E-007	1.81870000E+000
5.54000000E-007	1.81710000E+000
5.55000000E-007	1.81580000E+000
5.56000000E-007	1.81650000E+000
5.57000000E-007	1.81550000E+000
5.58000000E-007	1.81360000E+000
5.59000000E-007	1.81140000E+000
5.60000000E-007	1.81080000E+000
5.61000000E-007	1.81200000E+000
5.62000000E-007	1.81020000E+000
5.63000000E-007	1.80830000E+000
5.64000000E-007	1.80780000E+000
5.65000000E-007	1.80670000E+000
5.66000000E-007	1.80550000E+000
5.67000000E-007	1.80410000E+000
5.68000000E-007	1.80190000E+000
5.69000000E-007	1.79890000E+000
5.70000000E-007	1.79890000E+000
5.71000000E-007	1.79900000E+000
5.72000000E-007	1.79840000E+000
5.73000000E-007	1.79690000E+000
5.74000000E-007	1.79520000E+000
5.75000000E-007	1.79430000E+000
5.76000000E-007	1.79420000E+000
5.77000000E-007	1.79470000E+000
5.78000000E-007	1.79310000E+000
5.79000000E-007	1.79200000E+000
5.80000000E-007	1.79200000E+000
5.81000000E-007	1.79060000E+000
5.82000000E-007	1.78870000E+000
5.83000000E-007	1.78710000E+000
5.84000000E-007	1.78660000E+000
5.85000000E-007	1.78700000E+000
5.86000000E-007	1.78660000E+000
5.87000000E-007	1.78550000E+000
5.88000000E-007	1.78320000E+000
5.89000000E-007	1.78190000E+000
5.90000000E-007	1.78090000E+000
5.91000000E-007	1.78020000E+000
5.92000000E-007	1.77910000E+000
5.93000000E-007	1.77770000E+000
5.94000000E-007	1.77660000E+000
5.95000000E-007	1.77600000E+000
5.96000000E-007	1.77620000E+000
5.97000000E-007	1.77470000E+000
5.98000000E-007	1.77320000E+000
5.99000000E-007	1.77270000E+000
6.00000000E-007	1.77040000E+000
6.01000000E-007	1.76730000E+000
6.02000000E-007	1.76740000E+000
6.03000000E-007	1.76710000E+000
6.04000000E-007	1.76640000E+000
6.05000000E-007	1.76430000E+000
6.06000000E-007	1.76250000E+000
6.07000000E-007	1.76180000E+000
6.08000000E-007	1.76070000E+000
6.09000000E-007	1.75920000E+000
6.10000000E-007	1.75720000E+000
6.11000000E-007	1.75610000E+000
6.12000000E-007	1.75600000E+000
6.13000000E-007	1.75450000E+000
6.14000000E-007	1.75390000E+000
6.15000000E-007	1.75520000E+000
6.16000000E-007	1.75320000E+000
6.17000000E-007	1.75070000E+000
6.18000000E-007	1.75320000E+000
6.19000000E-007	1.75300000E+000
6.20000000E-007	1.75060000E+000
6.21000000E-007	1.74810000E+000
6.22000000E-007	1.74580000E+000
6.23000000E-007	1.74390000E+000
6.24000000E-007	1.74390000E+000
6.25000000E-007	1.74410000E+000
6.26000000E-007	1.74230000E+000
6.27000000E-007	1.74030000E+000
6.28000000E-007	1.73800000E+000
6.29000000E-007	1.73730000E+000
6.30000000E-007	1.73670000E+000
6.31000000E-007	1.73640000E+000
6.32000000E-007	1.73600000E+000
6.33000000E-007	1.73550000E+000
6.34000000E-007	1.73520000E+000
6.35000000E-007	1.73420000E+000
6.36000000E-007	1.73300000E+000
6.37000000E-007	1.73140000E+000
6.38000000E-007	1.72930000E+000
6.39000000E-007	1.72670000E+000
6.40000000E-007	1.72450000E+000
6.41000000E-007	1.72320000E+000
6.42000000E-007	1.72410000E+000
6.43000000E-007	1.72340000E+000
6.44000000E-007	1.72200000E+000
6.45000000E-007	1.72000000E+000
6.46000000E-007	1.71950000E+000
6.47000000E-007	1.72030000E+000
6.48000000E-007	1.71720000E+000
6.49000000E-007	1.71500000E+000
6.50000000E-007	1.71510000E+000
6.51000000E-007	1.71490000E+000
6.52000000E-007	1.71420000E+000
6.53000000E-007	1.71200000E+000
6.54000000E-007	1.71100000E+000
6.55000000E-007	1.71090000E+000
6.56000000E-007	1.71020000E+000
6.57000000E-007	1.70940000E+000
6.58000000E-007	1.70840000E+000
6.59000000E-007	1.70520000E+000
6.60000000E-007	1.70250000E+000
6.61000000E-007	1.70310000E+000
6.62000000E-007	1.70330000E+000
6.63000000E-007	1.70340000E+000
6.64000000E-007	1.70130000E+000
6.65000000E-007	1.70010000E+000
6.66000000E-007	1.69980000E+000
6.67000000E-007	1.69840000E+000
6.68000000E-007	1.69720000E+000
6.69000000E-007	1.69690000E+000
6.70000000E-007	1.69580000E+000
6.71000000E-007	1.69460000E+000
6.72000000E-007	1.69460000E+000
6.73000000E-007	1.69360000E+000
6.74000000E-007	1.69140000E+000
6.75000000E-007	1.69060000E+000
6.76000000E-007	1.68920000E+000
6.77000000E-007	1.68680000E+000
6.78000000E-007	1.68620000E+000
6.79000000E-007	1.68600000E+000
6.80000000E-007	1.68560000E+000
6.81000000E-007	1.68400000E+000
6.82000000E-007	1.68150000E+000
6.83000000E-007	1.68060000E+000
6.84000000E-007	1.68020000E+000
6.85000000E-007	1.68080000E+000
6.86000000E-007	1.67940000E+000
6.87000000E-007	1.67730000E+000
6.88000000E-007	1.67420000E+000
6.89000000E-007	1.67270000E+000
6.90000000E-007	1.67200000E+000
6.91000000E-007	1.67150000E+000
6.92000000E-007	1.67070000E+000
6.93000000E-007	1.66970000E+000
6.94000000E-007	1.66870000E+000
6.95000000E-007	1.66730000E+000
6.96000000E-007	1.66460000E+000
6.97000000E-007	1.66320000E+000
6.98000000E-007	1.66240000E+000
6.99000000E-007	1.66200000E+000
7.00000000E-007	1.66150000E+000
7.01000000E-007	1.66110000E+000
7.02000000E-007	1.66060000E+000
7.03000000E-007	1.66020000E+000
7.04000000E-007	1.66000000E+000
7.05000000E-007	1.65790000E+000
7.06000000E-007	1.65590000E+000
7.07000000E-007	1.65670000E+000
7.08000000E-007	1.65510000E+000
7.09000000E-007	1.65210000E+000
7.10000000E-007	1.65120000E+000
7.11000000E-007	1.65060000E+000
7.12000000E-007	1.65010000E+000
7.13000000E-007	1.64920000E+000
7.14000000E-007	1.64810000E+000
7.15000000E-007	1.64660000E+000
7.16000000E-007	1.64620000E+000
7.17000000E-007	1.64610000E+000
7.18000000E-007	1.64420000E+000
7.19000000E-007	1.64270000E+000
7.20000000E-007	1.64140000E+000
7.21000000E-007	1.64090000E+000
7.22000000E-007	1.63960000E+000
7.23000000E-007	1.63660000E+000
7.24000000E-007	1.63460000E+000
7.25000000E-007	1.63280000E+000
7.26000000E-007	1.63100000E+000
7.27000000E-007	1.63110000E+000
7.28000000E-007	1.63280000E+000
7.29000000E-007	1.63250000E+000
7.30000000E-007	1.63170000E+000
7.31000000E-007	1.63020000E+000
7.32000000E-007	1.62860000E+000
7.33000000E-007	1.62730000E+000
7.34000000E-007	1.62660000E+000
7.35000000E-007	1.62470000E+000
7.36000000E-007	1.62240000E+000
7.37000000E-007	1.62160000E+000
7.38000000E-007	1.62040000E+000
7.39000000E-007	1.61880000E+000
7.40000000E-007	1.61640000E+000
7.41000000E-007	1.61490000E+000
7.42000000E-007	1.61560000E+000
7.43000000E-007	1.61560000E+000
7.44000000E-007	1.61520000E+000
7.45000000E-007	1.61470000E+000
7.46000000E-007	1.61340000E+000
7.47000000E-007	1.61150000E+000
7.48000000E-007	1.61060000E+000
7.49000000E-007	1.60930000E+000
7.50000000E-007	1.60740000E+000
7.51000000E-007	1.60620000E+000
7.52000000E-007	1.60550000E+000
7.53000000E-007	1.60600000E+000
7.54000000E-007	1.60470000E+000
7.55000000E-007	1.60260000E+000
7.56000000E-007	1.60220000E+000
7.57000000E-007	1.60200000E+000
7.58000000E-007	1.60190000E+000
7.59000000E-007	1.59800000E+000
7.60000000E-007	1.59450000E+000
7.61000000E-007	1.59270000E+000
7.62000000E-007	1.59210000E+000
7.63000000E-007	1.59150000E+000
7.64000000E-007	1.58940000E+000
7.65000000E-007	1.58850000E+000
7.66000000E-007	1.58850000E+000
7.67000000E-007	1.58680000E+000
7.68000000E-007	1.58570000E+000
7.69000000E-007	1.58530000E+000
7.70000000E-007	1.58480000E+000
7.71000000E-007	1.58420000E+000
7.72000000E-007	1.58390000E+000
7.73000000E-007	1.58190000E+000
7.74000000E-007	1.57910000E+000
7.75000000E-007	1.57780000E+000
7.76000000E-007	1.57620000E+000
7.77000000E-007	1.57440000E+000
7.78000000E-007	1.57330000E+000
7.79000000E-007	1.57310000E+000
7.80000000E-007	1.57470000E+000
7.81000000E-007	1.57560000E+000
7.82000000E-007	1.57550000E+000
7.83000000E-007	1.57170000E+000
7.84000000E-007	1.56820000E+000
7.85000000E-007	1.56500000E+000
7.86000000E-007	1.56650000E+000
7.87000000E-007	1.56550000E+000
7.88000000E-007	1.56160000E+000
7.89000000E-007	1.55980000E+000
7.90000000E-007	1.55910000E+000
7.91000000E-007	1.56010000E+000
7.92000000E-007	1.55940000E+000
7.93000000E-007	1.55790000E+000
7.94000000E-007	1.55540000E+000
7.95000000E-007	1.55480000E+000
7.96000000E-007	1.55560000E+000
7.97000000E-007	1.55560000E+000
7.98000000E-007	1.55450000E+000
7.99000000E-007	1.55180000E+000
8.00000000E-007	1.54890000E+000

